  n        t          u^n          v^n      u^(n+1)      v^(n+1)           y(t)        error
  0   0.0000     0.010000     1.000000     0.034687     0.975285       0.010000 -8.673617e-18
  1   0.0250     0.034687     0.975285     0.058764     0.951149       0.034690 -2.380010e-06
  2   0.0500     0.058764     0.951149     0.082245     0.927580       0.058769 -4.646588e-06
  3   0.0750     0.082245     0.927580     0.105143     0.904565       0.082252 -6.803744e-06
  4   0.1000     0.105143     0.904565     0.127473     0.882089       0.105152 -8.855359e-06
  5   0.1250     0.127473     0.882089     0.149247     0.860142       0.127484 -1.080520e-05
  6   0.1500     0.149247     0.860142     0.170480     0.838709       0.149260 -1.265689e-05
  7   0.1750     0.170480     0.838709     0.191183     0.817780       0.170494 -1.441398e-05
  8   0.2000     0.191183     0.817780     0.211369     0.797342       0.191199 -1.607988e-05
  9   0.2250     0.211369     0.797342     0.231050     0.777384       0.211386 -1.765789e-05
 10   0.2500     0.231050     0.777384     0.250238     0.757895       0.231069 -1.915123e-05
 11   0.2750     0.250238     0.757895     0.268945     0.738864       0.250258 -2.056298e-05
 12   0.3000     0.268945     0.738864     0.287181     0.720280       0.268966 -2.189615e-05
 13   0.3250     0.287181     0.720280     0.304959     0.702132       0.287204 -2.315366e-05
 14   0.3500     0.304959     0.702132     0.322288     0.684411       0.304983 -2.433831e-05
 15   0.3750     0.322288     0.684411     0.339179     0.667106       0.322313 -2.545283e-05
 16   0.4000     0.339179     0.667106     0.355643     0.650208       0.339205 -2.649985e-05
 17   0.4250     0.355643     0.650208     0.371689     0.633707       0.355670 -2.748193e-05
 18   0.4500     0.371689     0.633707     0.387328     0.617593       0.371718 -2.840153e-05
 19   0.4750     0.387328     0.617593     0.402569     0.601859       0.387357 -2.926105e-05
 20   0.5000     0.402569     0.601859     0.417421     0.586494       0.402599 -3.006279e-05
 21   0.5250     0.417421     0.586494     0.431894     0.571491       0.417452 -3.080899e-05
 22   0.5500     0.431894     0.571491     0.445995     0.556840       0.431925 -3.150181e-05
 23   0.5750     0.445995     0.556840     0.459736     0.542534       0.446028 -3.214334e-05
 24   0.6000     0.459736     0.542534     0.473122     0.528564       0.459768 -3.273562e-05
 25   0.6250     0.473122     0.528564     0.486164     0.514923       0.473155 -3.328058e-05
 26   0.6500     0.486164     0.514923     0.498868     0.501602       0.486197 -3.378014e-05
 27   0.6750     0.498868     0.501602     0.511244     0.488595       0.498902 -3.423611e-05
 28   0.7000     0.511244     0.488595     0.523298     0.475894       0.511278 -3.465027e-05
 29   0.7250     0.523298     0.475894     0.535038     0.463492       0.523333 -3.502432e-05
 30   0.7500     0.535038     0.463492     0.546473     0.451382       0.535074 -3.535992e-05
 31   0.7750     0.546473     0.451382     0.557607     0.439557       0.546508 -3.565866e-05
 32   0.8000     0.557607     0.439557     0.568450     0.428010       0.557643 -3.592209e-05
 33   0.8250     0.568450     0.428010     0.579008     0.416736       0.568486 -3.615170e-05
 34   0.8500     0.579008     0.416736     0.589287     0.405726       0.579044 -3.634893e-05
 35   0.8750     0.589287     0.405726     0.599294     0.394976       0.589324 -3.651518e-05
 36   0.9000     0.599294     0.394976     0.609036     0.384479       0.599331 -3.665178e-05
 37   0.9250     0.609036     0.384479     0.618518     0.374230       0.609073 -3.676004e-05
 38   0.9500     0.618518     0.374230     0.627747     0.364221       0.618555 -3.684121e-05
 39   0.9750     0.627747     0.364221     0.636729     0.354449       0.627784 -3.689650e-05
 40   1.0000     0.636729     0.354449     0.645470     0.344907       0.636766 -3.692708e-05
 41   1.0250     0.645470     0.344907     0.653975     0.335590       0.645507 -3.693408e-05
 42   1.0500     0.653975     0.335590     0.662249     0.326493       0.654011 -3.691859e-05
 43   1.0750     0.662249     0.326493     0.670299     0.317610       0.662286 -3.688166e-05
 44   1.1000     0.670299     0.317610     0.678130     0.308937       0.670336 -3.682431e-05
 45   1.1250     0.678130     0.308937     0.685746     0.300468       0.678166 -3.674751e-05
 46   1.1500     0.685746     0.300468     0.693153     0.292199       0.685783 -3.665220e-05
 47   1.1750     0.693153     0.292199     0.700356     0.284125       0.693190 -3.653930e-05
 48   1.2000     0.700356     0.284125     0.707359     0.276242       0.700392 -3.640969e-05
 49   1.2250     0.707359     0.276242     0.714168     0.268545       0.707395 -3.626420e-05
 50   1.2500     0.714168     0.268545     0.720786     0.261029       0.714204 -3.610367e-05
 51   1.2750     0.720786     0.261029     0.727219     0.253691       0.720822 -3.592887e-05
 52   1.3000     0.727219     0.253691     0.733471     0.246527       0.727255 -3.574056e-05
 53   1.3250     0.733471     0.246527     0.739546     0.239531       0.733506 -3.553948e-05
 54   1.3500     0.739546     0.239531     0.745447     0.232701       0.739581 -3.532632e-05
 55   1.3750     0.745447     0.232701     0.751181     0.226033       0.745483 -3.510176e-05
 56   1.4000     0.751181     0.226033     0.756749     0.219522       0.751216 -3.486646e-05
 57   1.4250     0.756749     0.219522     0.762157     0.213165       0.756784 -3.462105e-05
 58   1.4500     0.762157     0.213165     0.767407     0.206958       0.762191 -3.436612e-05
 59   1.4750     0.767407     0.206958     0.772505     0.200898       0.767441 -3.410227e-05
 60   1.5000     0.772505     0.200898     0.777452     0.194982       0.772538 -3.383004e-05
 61   1.5250     0.777452     0.194982     0.782254     0.189206       0.777486 -3.354999e-05
 62   1.5500     0.782254     0.189206     0.786912     0.183566       0.782287 -3.326262e-05
 63   1.5750     0.786912     0.183566     0.791432     0.178060       0.786945 -3.296844e-05
 64   1.6000     0.791432     0.178060     0.795815     0.172684       0.791465 -3.266792e-05
 65   1.6250     0.795815     0.172684     0.800066     0.167436       0.795848 -3.236152e-05
 66   1.6500     0.800066     0.167436     0.804187     0.162312       0.800098 -3.204970e-05
 67   1.6750     0.804187     0.162312     0.808182     0.157310       0.804219 -3.173286e-05
 68   1.7000     0.808182     0.157310     0.812053     0.152426       0.808213 -3.141142e-05
 69   1.7250     0.812053     0.152426     0.815803     0.147659       0.812084 -3.108577e-05
 70   1.7500     0.815803     0.147659     0.819436     0.143004       0.815834 -3.075628e-05
 71   1.7750     0.819436     0.143004     0.822953     0.138460       0.819466 -3.042332e-05
 72   1.8000     0.822953     0.138460     0.826359     0.134024       0.822983 -3.008722e-05
 73   1.8250     0.826359     0.134024     0.829654     0.129693       0.826388 -2.974833e-05
 74   1.8500     0.829654     0.129693     0.832843     0.125465       0.829684 -2.940696e-05
 75   1.8750     0.832843     0.125465     0.835928     0.121338       0.832872 -2.906341e-05
 76   1.9000     0.835928     0.121338     0.838910     0.117308       0.835956 -2.871798e-05
 77   1.9250     0.838910     0.117308     0.841793     0.113375       0.838938 -2.837093e-05
 78   1.9500     0.841793     0.113375     0.844579     0.109535       0.841821 -2.802255e-05
 79   1.9750     0.844579     0.109535     0.847270     0.105787       0.844606 -2.767308e-05
 80   2.0000     0.847270     0.105787     0.849868     0.102128       0.847297 -2.732277e-05
 81   2.0250     0.849868     0.102128     0.852376     0.098556       0.849895 -2.697185e-05
 82   2.0500     0.852376     0.098556     0.854796     0.095069       0.852403 -2.662054e-05
 83   2.0750     0.854796     0.095069     0.857130     0.091665       0.854822 -2.626906e-05
 84   2.1000     0.857130     0.091665     0.859379     0.088343       0.857155 -2.591761e-05
 85   2.1250     0.859379     0.088343     0.861547     0.085100       0.859405 -2.556639e-05
 86   2.1500     0.861547     0.085100     0.863634     0.081934       0.861572 -2.521557e-05
 87   2.1750     0.863634     0.081934     0.865643     0.078844       0.863659 -2.486533e-05
 88   2.2000     0.865643     0.078844     0.867576     0.075828       0.865668 -2.451584e-05
 89   2.2250     0.867576     0.075828     0.869435     0.072884       0.867600 -2.416726e-05
 90   2.2500     0.869435     0.072884     0.871220     0.070010       0.869459 -2.381974e-05
 91   2.2750     0.871220     0.070010     0.872935     0.067205       0.871244 -2.347343e-05
 92   2.3000     0.872935     0.067205     0.874581     0.064467       0.872958 -2.312845e-05
 93   2.3250     0.874581     0.064467     0.876159     0.061795       0.874603 -2.278494e-05
 94   2.3500     0.876159     0.061795     0.877670     0.059187       0.876181 -2.244303e-05
 95   2.3750     0.877670     0.059187     0.879118     0.056642       0.877693 -2.210282e-05
 96   2.4000     0.879118     0.056642     0.880503     0.054157       0.879140 -2.176443e-05
 97   2.4250     0.880503     0.054157     0.881826     0.051733       0.880524 -2.142796e-05
 98   2.4500     0.881826     0.051733     0.883089     0.049366       0.881847 -2.109350e-05
 99   2.4750     0.883089     0.049366     0.884294     0.047057       0.883110 -2.076116e-05
100   2.5000     0.884294     0.047057     0.885442     0.044803       0.884315 -2.043102e-05
101   2.5250     0.885442     0.044803     0.886534     0.042603       0.885462 -2.010315e-05
102   2.5500     0.886534     0.042603     0.887572     0.040456       0.886554 -1.977763e-05
103   2.5750     0.887572     0.040456     0.888557     0.038361       0.887592 -1.945455e-05
104   2.6000     0.888557     0.038361     0.889490     0.036317       0.888576 -1.913395e-05
105   2.6250     0.889490     0.036317     0.890373     0.034322       0.889509 -1.881591e-05
106   2.6500     0.890373     0.034322     0.891206     0.032375       0.890391 -1.850049e-05
107   2.6750     0.891206     0.032375     0.891992     0.030475       0.891224 -1.818773e-05
108   2.7000     0.891992     0.030475     0.892730     0.028621       0.892009 -1.787769e-05
109   2.7250     0.892730     0.028621     0.893423     0.026812       0.892748 -1.757042e-05
110   2.7500     0.893423     0.026812     0.894071     0.025047       0.893440 -1.726595e-05
111   2.7750     0.894071     0.025047     0.894675     0.023324       0.894088 -1.696433e-05
112   2.8000     0.894675     0.023324     0.895237     0.021644       0.894692 -1.666559e-05
113   2.8250     0.895237     0.021644     0.895757     0.020004       0.895253 -1.636977e-05
114   2.8500     0.895757     0.020004     0.896237     0.018404       0.895773 -1.607689e-05
115   2.8750     0.896237     0.018404     0.896677     0.016843       0.896253 -1.578697e-05
116   2.9000     0.896677     0.016843     0.897079     0.015320       0.896693 -1.550006e-05
117   2.9250     0.897079     0.015320     0.897443     0.013835       0.897094 -1.521615e-05
118   2.9500     0.897443     0.013835     0.897771     0.012385       0.897458 -1.493528e-05
119   2.9750     0.897771     0.012385     0.898063     0.010971       0.897786 -1.465746e-05
120   3.0000     0.898063     0.010971     0.898319     0.009591       0.898077 -1.438270e-05
121   3.0250     0.898319     0.009591     0.898542     0.008246       0.898334 -1.411101e-05
122   3.0500     0.898542     0.008246     0.898732     0.006933       0.898556 -1.384241e-05
123   3.0750     0.898732     0.006933     0.898889     0.005652       0.898745 -1.357689e-05
124   3.1000     0.898889     0.005652     0.899014     0.004403       0.898902 -1.331447e-05
125   3.1250     0.899014     0.004403     0.899109     0.003184       0.899027 -1.305514e-05
126   3.1500     0.899109     0.003184     0.899173     0.001996       0.899122 -1.279891e-05
127   3.1750     0.899173     0.001996     0.899209     0.000837       0.899186 -1.254578e-05
128   3.2000     0.899209     0.000837     0.899215    -0.000294       0.899221 -1.229574e-05
129   3.2250     0.899215    -0.000294     0.899194    -0.001397       0.899227 -1.204879e-05
130   3.2500     0.899194    -0.001397     0.899145    -0.002472       0.899206 -1.180492e-05
131   3.2750     0.899145    -0.002472     0.899070    -0.003521       0.899157 -1.156413e-05
132   3.3000     0.899070    -0.003521     0.898969    -0.004544       0.899082 -1.132641e-05
133   3.3250     0.898969    -0.004544     0.898843    -0.005541       0.898981 -1.109175e-05
134   3.3500     0.898843    -0.005541     0.898692    -0.006514       0.898854 -1.086014e-05
135   3.3750     0.898692    -0.006514     0.898518    -0.007462       0.898703 -1.063156e-05
136   3.4000     0.898518    -0.007462     0.898319    -0.008387       0.898528 -1.040601e-05
137   3.4250     0.898319    -0.008387     0.898098    -0.009289       0.898329 -1.018347e-05
138   3.4500     0.898098    -0.009289     0.897855    -0.010168       0.898108 -9.963920e-06
139   3.4750     0.897855    -0.010168     0.897590    -0.011025       0.897865 -9.747350e-06
140   3.5000     0.897590    -0.011025     0.897304    -0.011860       0.897599 -9.533741e-06
141   3.5250     0.897304    -0.011860     0.896997    -0.012675       0.897313 -9.323074e-06
142   3.5500     0.896997    -0.012675     0.896670    -0.013469       0.897006 -9.115332e-06
143   3.5750     0.896670    -0.013469     0.896323    -0.014243       0.896679 -8.910496e-06
144   3.6000     0.896323    -0.014243     0.895958    -0.014998       0.896332 -8.708544e-06
145   3.6250     0.895958    -0.014998     0.895573    -0.015733       0.895966 -8.509457e-06
146   3.6500     0.895573    -0.015733     0.895171    -0.016450       0.895582 -8.313212e-06
147   3.6750     0.895171    -0.016450     0.894751    -0.017149       0.895179 -8.119789e-06
148   3.7000     0.894751    -0.017149     0.894314    -0.017830       0.894759 -7.929164e-06
149   3.7250     0.894314    -0.017830     0.893859    -0.018493       0.894321 -7.741315e-06
150   3.7500     0.893859    -0.018493     0.893389    -0.019140       0.893867 -7.556219e-06
151   3.7750     0.893389    -0.019140     0.892902    -0.019770       0.893396 -7.373850e-06
152   3.8000     0.892902    -0.019770     0.892400    -0.020383       0.892910 -7.194187e-06
153   3.8250     0.892400    -0.020383     0.891883    -0.020981       0.892407 -7.017202e-06
154   3.8500     0.891883    -0.020981     0.891351    -0.021564       0.891890 -6.842873e-06
155   3.8750     0.891351    -0.021564     0.890805    -0.022132       0.891358 -6.671173e-06
156   3.9000     0.890805    -0.022132     0.890245    -0.022684       0.890812 -6.502077e-06
157   3.9250     0.890245    -0.022684     0.889671    -0.023223       0.890251 -6.335559e-06
158   3.9500     0.889671    -0.023223     0.889084    -0.023747       0.889677 -6.171593e-06
159   3.9750     0.889084    -0.023747     0.888483    -0.024258       0.889090 -6.010154e-06
160   4.0000     0.888483    -0.024258     0.887871    -0.024756       0.888489 -5.851214e-06
161   4.0250     0.887871    -0.024756     0.887246    -0.025240       0.887876 -5.694748e-06
162   4.0500     0.887246    -0.025240     0.886609    -0.025712       0.887251 -5.540729e-06
163   4.0750     0.886609    -0.025712     0.885960    -0.026171       0.886614 -5.389129e-06
164   4.1000     0.885960    -0.026171     0.885300    -0.026618       0.885965 -5.239922e-06
165   4.1250     0.885300    -0.026618     0.884629    -0.027053       0.885305 -5.093082e-06
166   4.1500     0.884629    -0.027053     0.883947    -0.027477       0.884634 -4.948580e-06
167   4.1750     0.883947    -0.027477     0.883255    -0.027889       0.883952 -4.806391e-06
168   4.2000     0.883255    -0.027889     0.882553    -0.028291       0.883260 -4.666487e-06
169   4.2250     0.882553    -0.028291     0.881841    -0.028681       0.882558 -4.528842e-06
170   4.2500     0.881841    -0.028681     0.881119    -0.029061       0.881845 -4.393427e-06
171   4.2750     0.881119    -0.029061     0.880388    -0.029431       0.881123 -4.260217e-06
172   4.3000     0.880388    -0.029431     0.879647    -0.029791       0.880392 -4.129184e-06
173   4.3250     0.879647    -0.029791     0.878898    -0.030141       0.879651 -4.000301e-06
174   4.3500     0.878898    -0.030141     0.878140    -0.030481       0.878902 -3.873542e-06
175   4.3750     0.878140    -0.030481     0.877374    -0.030812       0.878144 -3.748879e-06
176   4.4000     0.877374    -0.030812     0.876600    -0.031134       0.877378 -3.626287e-06
177   4.4250     0.876600    -0.031134     0.875817    -0.031447       0.876603 -3.505738e-06
178   4.4500     0.875817    -0.031447     0.875027    -0.031751       0.875821 -3.387206e-06
179   4.4750     0.875027    -0.031751     0.874230    -0.032047       0.875031 -3.270665e-06
180   4.5000     0.874230    -0.032047     0.873425    -0.032334       0.874233 -3.156089e-06
181   4.5250     0.873425    -0.032334     0.872613    -0.032614       0.873428 -3.043451e-06
182   4.5500     0.872613    -0.032614     0.871794    -0.032885       0.872616 -2.932725e-06
183   4.5750     0.871794    -0.032885     0.870969    -0.033149       0.871797 -2.823886e-06
184   4.6000     0.870969    -0.033149     0.870137    -0.033405       0.870972 -2.716908e-06
185   4.6250     0.870137    -0.033405     0.869299    -0.033654       0.870140 -2.611766e-06
186   4.6500     0.869299    -0.033654     0.868454    -0.033896       0.869301 -2.508434e-06
187   4.6750     0.868454    -0.033896     0.867604    -0.034130       0.868457 -2.406887e-06
188   4.7000     0.867604    -0.034130     0.866748    -0.034358       0.867606 -2.307100e-06
189   4.7250     0.866748    -0.034358     0.865886    -0.034579       0.866750 -2.209049e-06
190   4.7500     0.865886    -0.034579     0.865019    -0.034794       0.865888 -2.112709e-06
191   4.7750     0.865019    -0.034794     0.864146    -0.035002       0.865021 -2.018055e-06
192   4.8000     0.864146    -0.035002     0.863269    -0.035204       0.864148 -1.925063e-06
193   4.8250     0.863269    -0.035204     0.862386    -0.035400       0.863271 -1.833710e-06
194   4.8500     0.862386    -0.035400     0.861499    -0.035590       0.862388 -1.743972e-06
195   4.8750     0.861499    -0.035590     0.860607    -0.035774       0.861500 -1.655825e-06
196   4.9000     0.860607    -0.035774     0.859710    -0.035953       0.860608 -1.569245e-06
197   4.9250     0.859710    -0.035953     0.858809    -0.036126       0.859711 -1.484210e-06
198   4.9500     0.858809    -0.036126     0.857904    -0.036294       0.858810 -1.400697e-06
199   4.9750     0.857904    -0.036294     0.856994    -0.036456       0.857905 -1.318683e-06
