  n        t          u^n          v^n      u^(n+1)      v^(n+1)           y(t)        error
  0   0.0000     0.010000     1.000000     0.035000     0.974988       0.010000 -8.673617e-18
  1   0.0250     0.035000     0.974988     0.059375     0.950569       0.034690 3.102762e-04
  2   0.0500     0.059375     0.950569     0.083139     0.926731       0.058769 6.059023e-04
  3   0.0750     0.083139     0.926731     0.106307     0.903458       0.082252 8.873955e-04
  4   0.1000     0.106307     0.903458     0.128894     0.880739       0.105152 1.155257e-03
  5   0.1250     0.128894     0.880739     0.150912     0.858559       0.127484 1.409972e-03
  6   0.1500     0.150912     0.858559     0.172376     0.836907       0.149260 1.652012e-03
  7   0.1750     0.172376     0.836907     0.193299     0.815769       0.170494 1.881830e-03
  8   0.2000     0.193299     0.815769     0.213693     0.795133       0.191199 2.099868e-03
  9   0.2250     0.213693     0.795133     0.233571     0.774987       0.211386 2.306553e-03
 10   0.2500     0.233571     0.774987     0.252946     0.755321       0.231069 2.502298e-03
 11   0.2750     0.252946     0.755321     0.271829     0.736122       0.250258 2.687503e-03
 12   0.3000     0.271829     0.736122     0.290232     0.717379       0.268966 2.862556e-03
 13   0.3250     0.290232     0.717379     0.308167     0.699082       0.287204 3.027831e-03
 14   0.3500     0.308167     0.699082     0.325644     0.681219       0.304983 3.183691e-03
 15   0.3750     0.325644     0.681219     0.342674     0.663782       0.322313 3.330488e-03
 16   0.4000     0.342674     0.663782     0.359269     0.646759       0.339205 3.468562e-03
 17   0.4250     0.359269     0.646759     0.375438     0.630141       0.355670 3.598241e-03
 18   0.4500     0.375438     0.630141     0.391191     0.613918       0.371718 3.719845e-03
 19   0.4750     0.391191     0.613918     0.406539     0.598081       0.387357 3.833679e-03
 20   0.5000     0.406539     0.598081     0.421491     0.582621       0.402599 3.940044e-03
 21   0.5250     0.421491     0.582621     0.436057     0.567528       0.417452 4.039227e-03
 22   0.5500     0.436057     0.567528     0.450245     0.552795       0.431925 4.131506e-03
 23   0.5750     0.450245     0.552795     0.464065     0.538412       0.446028 4.217152e-03
 24   0.6000     0.464065     0.538412     0.477525     0.524372       0.459768 4.296425e-03
 25   0.6250     0.477525     0.524372     0.490634     0.510666       0.473155 4.369578e-03
 26   0.6500     0.490634     0.510666     0.503401     0.497286       0.486197 4.436854e-03
 27   0.6750     0.503401     0.497286     0.515833     0.484225       0.498902 4.498488e-03
 28   0.7000     0.515833     0.484225     0.527939     0.471474       0.511278 4.554710e-03
 29   0.7250     0.527939     0.471474     0.539726     0.459027       0.523333 4.605739e-03
 30   0.7500     0.539726     0.459027     0.551201     0.446877       0.535074 4.651788e-03
 31   0.7750     0.551201     0.446877     0.562373     0.435016       0.546508 4.693063e-03
 32   0.8000     0.562373     0.435016     0.573249     0.423438       0.557643 4.729762e-03
 33   0.8250     0.573249     0.423438     0.583834     0.412135       0.568486 4.762079e-03
 34   0.8500     0.583834     0.412135     0.594138     0.401102       0.579044 4.790198e-03
 35   0.8750     0.594138     0.401102     0.604165     0.390332       0.589324 4.814299e-03
 36   0.9000     0.604165     0.390332     0.613924     0.379818       0.599331 4.834555e-03
 37   0.9250     0.613924     0.379818     0.623419     0.369555       0.609073 4.851134e-03
 38   0.9500     0.623419     0.369555     0.632658     0.359537       0.618555 4.864196e-03
 39   0.9750     0.632658     0.359537     0.641647     0.349758       0.627784 4.873899e-03
 40   1.0000     0.641647     0.349758     0.650390     0.340212       0.636766 4.880391e-03
 41   1.0250     0.650390     0.340212     0.658896     0.330894       0.645507 4.883820e-03
 42   1.0500     0.658896     0.330894     0.667168     0.321798       0.654011 4.884325e-03
 43   1.0750     0.667168     0.321798     0.675213     0.312919       0.662286 4.882041e-03
 44   1.1000     0.675213     0.312919     0.683036     0.304252       0.670336 4.877099e-03
 45   1.1250     0.683036     0.304252     0.690642     0.295792       0.678166 4.869626e-03
 46   1.1500     0.690642     0.295792     0.698037     0.287534       0.685783 4.859742e-03
 47   1.1750     0.698037     0.287534     0.705225     0.279473       0.693190 4.847565e-03
 48   1.2000     0.705225     0.279473     0.712212     0.271604       0.700392 4.833208e-03
 49   1.2250     0.712212     0.271604     0.719002     0.263924       0.707395 4.816780e-03
 50   1.2500     0.719002     0.263924     0.725600     0.256427       0.714204 4.798386e-03
 51   1.2750     0.725600     0.256427     0.732011     0.249110       0.720822 4.778128e-03
 52   1.3000     0.732011     0.249110     0.738239     0.241967       0.727255 4.756102e-03
 53   1.3250     0.738239     0.241967     0.744288     0.234995       0.733506 4.732404e-03
 54   1.3500     0.744288     0.234995     0.750163     0.228190       0.739581 4.707123e-03
 55   1.3750     0.750163     0.228190     0.755868     0.221547       0.745483 4.680347e-03
 56   1.4000     0.755868     0.221547     0.761406     0.215064       0.751216 4.652160e-03
 57   1.4250     0.761406     0.215064     0.766783     0.208735       0.756784 4.622643e-03
 58   1.4500     0.766783     0.208735     0.772001     0.202558       0.762191 4.591874e-03
 59   1.4750     0.772001     0.202558     0.777065     0.196529       0.767441 4.559927e-03
 60   1.5000     0.777065     0.196529     0.781979     0.190645       0.772538 4.526876e-03
 61   1.5250     0.781979     0.190645     0.786745     0.184901       0.777486 4.492788e-03
 62   1.5500     0.786745     0.184901     0.791367     0.179295       0.782287 4.457731e-03
 63   1.5750     0.791367     0.179295     0.795850     0.173824       0.786945 4.421770e-03
 64   1.6000     0.795850     0.173824     0.800195     0.168483       0.791465 4.384965e-03
 65   1.6250     0.800195     0.168483     0.804407     0.163271       0.795848 4.347376e-03
 66   1.6500     0.804407     0.163271     0.808489     0.158184       0.800098 4.309060e-03
 67   1.6750     0.808489     0.158184     0.812444     0.153219       0.804219 4.270071e-03
 68   1.7000     0.812444     0.153219     0.816274     0.148373       0.808213 4.230463e-03
 69   1.7250     0.816274     0.148373     0.819983     0.143643       0.812084 4.190286e-03
 70   1.7500     0.819983     0.143643     0.823574     0.139027       0.815834 4.149587e-03
 71   1.7750     0.823574     0.139027     0.827050     0.134522       0.819466 4.108414e-03
 72   1.8000     0.827050     0.134522     0.830413     0.130125       0.822983 4.066811e-03
 73   1.8250     0.830413     0.130125     0.833666     0.125834       0.826388 4.024821e-03
 74   1.8500     0.833666     0.125834     0.836812     0.121646       0.829684 3.982484e-03
 75   1.8750     0.836812     0.121646     0.839853     0.117559       0.832872 3.939840e-03
 76   1.9000     0.839853     0.117559     0.842792     0.113570       0.835956 3.896927e-03
 77   1.9250     0.842792     0.113570     0.845631     0.109677       0.838938 3.853780e-03
 78   1.9500     0.845631     0.109677     0.848373     0.105878       0.841821 3.810434e-03
 79   1.9750     0.848373     0.105878     0.851020     0.102171       0.844606 3.766922e-03
 80   2.0000     0.851020     0.102171     0.853575     0.098553       0.847297 3.723275e-03
 81   2.0250     0.853575     0.098553     0.856038     0.095022       0.849895 3.679523e-03
 82   2.0500     0.856038     0.095022     0.858414     0.091576       0.852403 3.635696e-03
 83   2.0750     0.858414     0.091576     0.860703     0.088214       0.854822 3.591820e-03
 84   2.1000     0.860703     0.088214     0.862909     0.084933       0.857155 3.547923e-03
 85   2.1250     0.862909     0.084933     0.865032     0.081731       0.859405 3.504028e-03
 86   2.1500     0.865032     0.081731     0.867075     0.078606       0.861572 3.460160e-03
 87   2.1750     0.867075     0.078606     0.869040     0.075557       0.863659 3.416341e-03
 88   2.2000     0.869040     0.075557     0.870929     0.072582       0.865668 3.372594e-03
 89   2.2250     0.870929     0.072582     0.872744     0.069679       0.867600 3.328938e-03
 90   2.2500     0.872744     0.069679     0.874486     0.066846       0.869459 3.285394e-03
 91   2.2750     0.874486     0.066846     0.876157     0.064082       0.871244 3.241979e-03
 92   2.3000     0.876157     0.064082     0.877759     0.061384       0.872958 3.198712e-03
 93   2.3250     0.877759     0.061384     0.879294     0.058752       0.874603 3.155610e-03
 94   2.3500     0.879294     0.058752     0.880763     0.056185       0.876181 3.112688e-03
 95   2.3750     0.880763     0.056185     0.882167     0.053679       0.877693 3.069961e-03
 96   2.4000     0.882167     0.053679     0.883509     0.051234       0.879140 3.027444e-03
 97   2.4250     0.883509     0.051234     0.884790     0.048849       0.880524 2.985150e-03
 98   2.4500     0.884790     0.048849     0.886011     0.046522       0.881847 2.943092e-03
 99   2.4750     0.886011     0.046522     0.887174     0.044251       0.883110 2.901281e-03
100   2.5000     0.887174     0.044251     0.888281     0.042036       0.884315 2.859730e-03
101   2.5250     0.888281     0.042036     0.889331     0.039875       0.885462 2.818449e-03
102   2.5500     0.889331     0.039875     0.890328     0.037766       0.886554 2.777447e-03
103   2.5750     0.890328     0.037766     0.891272     0.035709       0.887592 2.736735e-03
104   2.6000     0.891272     0.035709     0.892165     0.033702       0.888576 2.696321e-03
105   2.6250     0.892165     0.033702     0.893008     0.031745       0.889509 2.656212e-03
106   2.6500     0.893008     0.031745     0.893801     0.029835       0.890391 2.616418e-03
107   2.6750     0.893801     0.029835     0.894547     0.027972       0.891224 2.576945e-03
108   2.7000     0.894547     0.027972     0.895247     0.026154       0.892009 2.537799e-03
109   2.7250     0.895247     0.026154     0.895900     0.024381       0.892748 2.498987e-03
110   2.7500     0.895900     0.024381     0.896510     0.022652       0.893440 2.460515e-03
111   2.7750     0.896510     0.022652     0.897076     0.020965       0.894088 2.422387e-03
112   2.8000     0.897076     0.020965     0.897600     0.019319       0.894692 2.384608e-03
113   2.8250     0.897600     0.019319     0.898083     0.017714       0.895253 2.347183e-03
114   2.8500     0.898083     0.017714     0.898526     0.016149       0.895773 2.310117e-03
115   2.8750     0.898526     0.016149     0.898930     0.014622       0.896253 2.273411e-03
116   2.9000     0.898930     0.014622     0.899295     0.013133       0.896693 2.237070e-03
117   2.9250     0.899295     0.013133     0.899624     0.011680       0.897094 2.201096e-03
118   2.9500     0.899624     0.011680     0.899916     0.010264       0.897458 2.165492e-03
119   2.9750     0.899916     0.010264     0.900172     0.008882       0.897786 2.130261e-03
120   3.0000     0.900172     0.008882     0.900394     0.007535       0.898077 2.095404e-03
121   3.0250     0.900394     0.007535     0.900583     0.006221       0.898334 2.060922e-03
122   3.0500     0.900583     0.006221     0.900738     0.004940       0.898556 2.026817e-03
123   3.0750     0.900738     0.004940     0.900862     0.003691       0.898745 1.993090e-03
124   3.1000     0.900862     0.003691     0.900954     0.002472       0.898902 1.959742e-03
125   3.1250     0.900954     0.002472     0.901016     0.001284       0.899027 1.926774e-03
126   3.1500     0.901016     0.001284     0.901048     0.000126       0.899122 1.894185e-03
127   3.1750     0.901048     0.000126     0.901051    -0.001004       0.899186 1.861977e-03
128   3.2000     0.901051    -0.001004     0.901026    -0.002105       0.899221 1.830147e-03
129   3.2250     0.901026    -0.002105     0.900973    -0.003178       0.899227 1.798698e-03
130   3.2500     0.900973    -0.003178     0.900894    -0.004225       0.899206 1.767627e-03
131   3.2750     0.900894    -0.004225     0.900788    -0.005246       0.899157 1.736934e-03
132   3.3000     0.900788    -0.005246     0.900657    -0.006241       0.899082 1.706619e-03
133   3.3250     0.900657    -0.006241     0.900501    -0.007210       0.898981 1.676679e-03
134   3.3500     0.900501    -0.007210     0.900321    -0.008156       0.898854 1.647115e-03
135   3.3750     0.900321    -0.008156     0.900117    -0.009077       0.898703 1.617925e-03
136   3.4000     0.900117    -0.009077     0.899890    -0.009975       0.898528 1.589106e-03
137   3.4250     0.899890    -0.009975     0.899641    -0.010851       0.898329 1.560659e-03
138   3.4500     0.899641    -0.010851     0.899369    -0.011704       0.898108 1.532580e-03
139   3.4750     0.899369    -0.011704     0.899077    -0.012536       0.897865 1.504867e-03
140   3.5000     0.899077    -0.012536     0.898763    -0.013346       0.897599 1.477520e-03
141   3.5250     0.898763    -0.013346     0.898430    -0.014136       0.897313 1.450536e-03
142   3.5500     0.898430    -0.014136     0.898076    -0.014906       0.897006 1.423912e-03
143   3.5750     0.898076    -0.014906     0.897704    -0.015656       0.896679 1.397646e-03
144   3.6000     0.897704    -0.015656     0.897312    -0.016386       0.896332 1.371737e-03
145   3.6250     0.897312    -0.016386     0.896903    -0.017098       0.895966 1.346180e-03
146   3.6500     0.896903    -0.017098     0.896475    -0.017792       0.895582 1.320975e-03
147   3.6750     0.896475    -0.017792     0.896030    -0.018468       0.895179 1.296117e-03
148   3.7000     0.896030    -0.018468     0.895569    -0.019126       0.894759 1.271606e-03
149   3.7250     0.895569    -0.019126     0.895091    -0.019767       0.894321 1.247437e-03
150   3.7500     0.895091    -0.019767     0.894596    -0.020392       0.893867 1.223607e-03
151   3.7750     0.894596    -0.020392     0.894087    -0.021001       0.893396 1.200115e-03
152   3.8000     0.894087    -0.021001     0.893562    -0.021593       0.892910 1.176957e-03
153   3.8250     0.893562    -0.021593     0.893022    -0.022170       0.892407 1.154130e-03
154   3.8500     0.893022    -0.022170     0.892467    -0.022732       0.891890 1.131631e-03
155   3.8750     0.892467    -0.022732     0.891899    -0.023280       0.891358 1.109457e-03
156   3.9000     0.891899    -0.023280     0.891317    -0.023813       0.890812 1.087605e-03
157   3.9250     0.891317    -0.023813     0.890722    -0.024331       0.890251 1.066072e-03
158   3.9500     0.890722    -0.024331     0.890114    -0.024836       0.889677 1.044854e-03
159   3.9750     0.890114    -0.024836     0.889493    -0.025328       0.889090 1.023948e-03
160   4.0000     0.889493    -0.025328     0.888859    -0.025807       0.888489 1.003352e-03
161   4.0250     0.888859    -0.025807     0.888214    -0.026273       0.887876 9.830620e-04
162   4.0500     0.888214    -0.026273     0.887557    -0.026726       0.887251 9.630744e-04
163   4.0750     0.887557    -0.026726     0.886889    -0.027167       0.886614 9.433862e-04
164   4.1000     0.886889    -0.027167     0.886210    -0.027597       0.885965 9.239941e-04
165   4.1250     0.886210    -0.027597     0.885520    -0.028015       0.885305 9.048949e-04
166   4.1500     0.885520    -0.028015     0.884820    -0.028421       0.884634 8.860851e-04
167   4.1750     0.884820    -0.028421     0.884109    -0.028817       0.883952 8.675616e-04
168   4.2000     0.884109    -0.028817     0.883389    -0.029201       0.883260 8.493210e-04
169   4.2250     0.883389    -0.029201     0.882659    -0.029576       0.882558 8.313600e-04
170   4.2500     0.882659    -0.029576     0.881919    -0.029940       0.881845 8.136752e-04
171   4.2750     0.881919    -0.029940     0.881171    -0.030294       0.881123 7.962634e-04
172   4.3000     0.881171    -0.030294     0.880414    -0.030638       0.880392 7.791212e-04
173   4.3250     0.880414    -0.030638     0.879648    -0.030972       0.879651 7.622454e-04
174   4.3500     0.879648    -0.030972     0.878873    -0.031297       0.878902 7.456327e-04
175   4.3750     0.878873    -0.031297     0.878091    -0.031614       0.878144 7.292797e-04
176   4.4000     0.878091    -0.031614     0.877301    -0.031921       0.877378 7.131832e-04
177   4.4250     0.877301    -0.031921     0.876503    -0.032220       0.876603 6.973399e-04
178   4.4500     0.876503    -0.032220     0.875697    -0.032510       0.875821 6.817465e-04
179   4.4750     0.875697    -0.032510     0.874884    -0.032792       0.875031 6.663999e-04
180   4.5000     0.874884    -0.032792     0.874065    -0.033065       0.874233 6.512968e-04
181   4.5250     0.874065    -0.033065     0.873238    -0.033331       0.873428 6.364340e-04
182   4.5500     0.873238    -0.033331     0.872405    -0.033590       0.872616 6.218082e-04
183   4.5750     0.872405    -0.033590     0.871565    -0.033840       0.871797 6.074164e-04
184   4.6000     0.871565    -0.033840     0.870719    -0.034084       0.870972 5.932554e-04
185   4.6250     0.870719    -0.034084     0.869867    -0.034320       0.870140 5.793219e-04
186   4.6500     0.869867    -0.034320     0.869009    -0.034549       0.869301 5.656130e-04
187   4.6750     0.869009    -0.034549     0.868145    -0.034772       0.868457 5.521255e-04
188   4.7000     0.868145    -0.034772     0.867276    -0.034988       0.867606 5.388564e-04
189   4.7250     0.867276    -0.034988     0.866401    -0.035197       0.866750 5.258025e-04
190   4.7500     0.866401    -0.035197     0.865521    -0.035400       0.865888 5.129609e-04
191   4.7750     0.865521    -0.035400     0.864636    -0.035597       0.865021 5.003286e-04
192   4.8000     0.864636    -0.035597     0.863746    -0.035788       0.864148 4.879026e-04
193   4.8250     0.863746    -0.035788     0.862852    -0.035973       0.863271 4.756799e-04
194   4.8500     0.862852    -0.035973     0.861952    -0.036152       0.862388 4.636576e-04
195   4.8750     0.861952    -0.036152     0.861048    -0.036326       0.861500 4.518329e-04
196   4.9000     0.861048    -0.036326     0.860140    -0.036494       0.860608 4.402027e-04
197   4.9250     0.860140    -0.036494     0.859228    -0.036657       0.859711 4.287644e-04
198   4.9500     0.859228    -0.036657     0.858311    -0.036815       0.858810 4.175150e-04
199   4.9750     0.858311    -0.036815     0.857391    -0.036967       0.857905 4.064518e-04
200   5.0000     0.857391    -0.036967     0.856467    -0.037115       0.856996 3.955721e-04
201   5.0250     0.856467    -0.037115     0.855539    -0.037257       0.856082 3.848729e-04
202   5.0500     0.855539    -0.037257     0.854608    -0.037395       0.855165 3.743518e-04
203   5.0750     0.854608    -0.037395     0.853673    -0.037529       0.854244 3.640059e-04
204   5.1000     0.853673    -0.037529     0.852735    -0.037658       0.853319 3.538327e-04
205   5.1250     0.852735    -0.037658     0.851793    -0.037782       0.852391 3.438294e-04
206   5.1500     0.851793    -0.037782     0.850849    -0.037902       0.851459 3.339936e-04
207   5.1750     0.850849    -0.037902     0.849901    -0.038018       0.850524 3.243226e-04
208   5.2000     0.849901    -0.038018     0.848951    -0.038130       0.849586 3.148139e-04
209   5.2250     0.848951    -0.038130     0.847997    -0.038238       0.848645 3.054650e-04
210   5.2500     0.847997    -0.038238     0.847041    -0.038342       0.847701 2.962734e-04
211   5.2750     0.847041    -0.038342     0.846083    -0.038442       0.846754 2.872366e-04
212   5.3000     0.846083    -0.038442     0.845122    -0.038539       0.845804 2.783523e-04
213   5.3250     0.845122    -0.038539     0.844158    -0.038632       0.844852 2.696181e-04
214   5.3500     0.844158    -0.038632     0.843192    -0.038721       0.843897 2.610315e-04
215   5.3750     0.843192    -0.038721     0.842224    -0.038807       0.842940 2.525903e-04
216   5.4000     0.842224    -0.038807     0.841254    -0.038890       0.841980 2.442921e-04
217   5.4250     0.841254    -0.038890     0.840282    -0.038969       0.841018 2.361346e-04
218   5.4500     0.840282    -0.038969     0.839308    -0.039045       0.840054 2.281157e-04
219   5.4750     0.839308    -0.039045     0.838332    -0.039118       0.839088 2.202330e-04
220   5.5000     0.838332    -0.039118     0.837354    -0.039188       0.838119 2.124845e-04
221   5.5250     0.837354    -0.039188     0.836374    -0.039255       0.837149 2.048679e-04
222   5.5500     0.836374    -0.039255     0.835393    -0.039319       0.836177 1.973811e-04
223   5.5750     0.835393    -0.039319     0.834410    -0.039381       0.835203 1.900220e-04
224   5.6000     0.834410    -0.039381     0.833425    -0.039439       0.834227 1.827885e-04
225   5.6250     0.833425    -0.039439     0.832439    -0.039495       0.833249 1.756786e-04
226   5.6500     0.832439    -0.039495     0.831452    -0.039548       0.832270 1.686902e-04
227   5.6750     0.831452    -0.039548     0.830463    -0.039599       0.831290 1.618213e-04
228   5.7000     0.830463    -0.039599     0.829473    -0.039647       0.830308 1.550701e-04
229   5.7250     0.829473    -0.039647     0.828482    -0.039692       0.829325 1.484344e-04
230   5.7500     0.828482    -0.039692     0.827490    -0.039736       0.828340 1.419125e-04
231   5.7750     0.827490    -0.039736     0.826496    -0.039777       0.827354 1.355025e-04
232   5.8000     0.826496    -0.039777     0.825502    -0.039815       0.826367 1.292024e-04
233   5.8250     0.825502    -0.039815     0.824506    -0.039852       0.825379 1.230104e-04
234   5.8500     0.824506    -0.039852     0.823510    -0.039886       0.824389 1.169248e-04
235   5.8750     0.823510    -0.039886     0.822513    -0.039918       0.823399 1.109437e-04
236   5.9000     0.822513    -0.039918     0.821515    -0.039949       0.822408 1.050654e-04
237   5.9250     0.821515    -0.039949     0.820516    -0.039977       0.821416 9.928818e-05
238   5.9500     0.820516    -0.039977     0.819517    -0.040003       0.820423 9.361031e-05
239   5.9750     0.819517    -0.040003     0.818517    -0.040027       0.819429 8.803012e-05
240   6.0000     0.818517    -0.040027     0.817516    -0.040050       0.818434 8.254594e-05
241   6.0250     0.817516    -0.040050     0.816515    -0.040070       0.817439 7.715615e-05
242   6.0500     0.816515    -0.040070     0.815513    -0.040089       0.816443 7.185915e-05
243   6.0750     0.815513    -0.040089     0.814511    -0.040107       0.815446 6.665334e-05
244   6.1000     0.814511    -0.040107     0.813508    -0.040122       0.814449 6.153718e-05
245   6.1250     0.813508    -0.040122     0.812505    -0.040136       0.813452 5.650911e-05
246   6.1500     0.812505    -0.040136     0.811502    -0.040148       0.812454 5.156764e-05
247   6.1750     0.811502    -0.040148     0.810498    -0.040159       0.811455 4.671127e-05
248   6.2000     0.810498    -0.040159     0.809494    -0.040168       0.810456 4.193854e-05
249   6.2250     0.809494    -0.040168     0.808490    -0.040176       0.809457 3.724800e-05
250   6.2500     0.808490    -0.040176     0.807485    -0.040182       0.808457 3.263823e-05
251   6.2750     0.807485    -0.040182     0.806481    -0.040187       0.807457 2.810784e-05
252   6.3000     0.806481    -0.040187     0.805476    -0.040190       0.806457 2.365544e-05
253   6.3250     0.805476    -0.040190     0.804472    -0.040192       0.805457 1.927968e-05
254   6.3500     0.804472    -0.040192     0.803467    -0.040193       0.804457 1.497922e-05
255   6.3750     0.803467    -0.040193     0.802462    -0.040192       0.803456 1.075276e-05
256   6.4000     0.802462    -0.040192     0.801457    -0.040191       0.802455 6.598998e-06
257   6.4250     0.801457    -0.040191     0.800452    -0.040188       0.801455 2.516662e-06
258   6.4500     0.800452    -0.040188     0.799448    -0.040184       0.800454 -1.495498e-06
259   6.4750     0.799448    -0.040184     0.798443    -0.040178       0.799453 -5.438715e-06
260   6.5000     0.798443    -0.040178     0.797439    -0.040172       0.798452 -9.314198e-06
261   6.5250     0.797439    -0.040172     0.796434    -0.040164       0.797452 -1.312314e-05
262   6.5500     0.796434    -0.040164     0.795430    -0.040156       0.796451 -1.686672e-05
263   6.5750     0.795430    -0.040156     0.794426    -0.040146       0.795451 -2.054608e-05
264   6.6000     0.794426    -0.040146     0.793423    -0.040136       0.794450 -2.416237e-05
265   6.6250     0.793423    -0.040136     0.792419    -0.040124       0.793450 -2.771669e-05
266   6.6500     0.792419    -0.040124     0.791416    -0.040111       0.792450 -3.121015e-05
267   6.6750     0.791416    -0.040111     0.790413    -0.040098       0.791451 -3.464382e-05
268   6.7000     0.790413    -0.040098     0.789411    -0.040083       0.790451 -3.801878e-05
269   6.7250     0.789411    -0.040083     0.788409    -0.040068       0.789452 -4.133606e-05
270   6.7500     0.788409    -0.040068     0.787407    -0.040052       0.788453 -4.459669e-05
271   6.7750     0.787407    -0.040052     0.786406    -0.040035       0.787455 -4.780168e-05
272   6.8000     0.786406    -0.040035     0.785405    -0.040017       0.786457 -5.095202e-05
273   6.8250     0.785405    -0.040017     0.784404    -0.039998       0.785459 -5.404870e-05
274   6.8500     0.784404    -0.039998     0.783405    -0.039979       0.784462 -5.709267e-05
275   6.8750     0.783405    -0.039979     0.782405    -0.039959       0.783465 -6.008487e-05
276   6.9000     0.782405    -0.039959     0.781406    -0.039938       0.782468 -6.302624e-05
277   6.9250     0.781406    -0.039938     0.780408    -0.039916       0.781472 -6.591769e-05
278   6.9500     0.780408    -0.039916     0.779410    -0.039894       0.780476 -6.876011e-05
279   6.9750     0.779410    -0.039894     0.778412    -0.039871       0.779481 -7.155439e-05
280   7.0000     0.778412    -0.039871     0.777416    -0.039847       0.778487 -7.430139e-05
281   7.0250     0.777416    -0.039847     0.776419    -0.039822       0.777493 -7.700197e-05
282   7.0500     0.776419    -0.039822     0.775424    -0.039797       0.776499 -7.965696e-05
283   7.0750     0.775424    -0.039797     0.774429    -0.039772       0.775506 -8.226718e-05
284   7.1000     0.774429    -0.039772     0.773435    -0.039746       0.774514 -8.483345e-05
285   7.1250     0.773435    -0.039746     0.772441    -0.039719       0.773522 -8.735656e-05
286   7.1500     0.772441    -0.039719     0.771448    -0.039691       0.772531 -8.983729e-05
287   7.1750     0.771448    -0.039691     0.770456    -0.039663       0.771540 -9.227641e-05
288   7.2000     0.770456    -0.039663     0.769464    -0.039635       0.770550 -9.467467e-05
289   7.2250     0.769464    -0.039635     0.768473    -0.039606       0.769561 -9.703281e-05
290   7.2500     0.768473    -0.039606     0.767483    -0.039576       0.768573 -9.935157e-05
291   7.2750     0.767483    -0.039576     0.766494    -0.039546       0.767585 -1.016317e-04
292   7.3000     0.766494    -0.039546     0.765505    -0.039516       0.766598 -1.038738e-04
293   7.3250     0.765505    -0.039516     0.764517    -0.039485       0.765611 -1.060786e-04
294   7.3500     0.764517    -0.039485     0.763530    -0.039453       0.764625 -1.082469e-04
295   7.3750     0.763530    -0.039453     0.762544    -0.039421       0.763641 -1.103792e-04
296   7.4000     0.762544    -0.039421     0.761558    -0.039389       0.762656 -1.124762e-04
297   7.4250     0.761558    -0.039389     0.760574    -0.039356       0.761673 -1.145386e-04
298   7.4500     0.760574    -0.039356     0.759590    -0.039323       0.760690 -1.165670e-04
299   7.4750     0.759590    -0.039323     0.758607    -0.039289       0.759708 -1.185620e-04
300   7.5000     0.758607    -0.039289     0.757624    -0.039255       0.758727 -1.205242e-04
301   7.5250     0.757624    -0.039255     0.756643    -0.039221       0.757747 -1.224543e-04
302   7.5500     0.756643    -0.039221     0.755662    -0.039186       0.756767 -1.243528e-04
303   7.5750     0.755662    -0.039186     0.754683    -0.039151       0.755789 -1.262203e-04
304   7.6000     0.754683    -0.039151     0.753704    -0.039116       0.754811 -1.280573e-04
305   7.6250     0.753704    -0.039116     0.752726    -0.039080       0.753834 -1.298644e-04
306   7.6500     0.752726    -0.039080     0.751749    -0.039044       0.752858 -1.316423e-04
307   7.6750     0.751749    -0.039044     0.750773    -0.039007       0.751882 -1.333913e-04
308   7.7000     0.750773    -0.039007     0.749798    -0.038971       0.750908 -1.351120e-04
309   7.7250     0.749798    -0.038971     0.748824    -0.038934       0.749935 -1.368050e-04
310   7.7500     0.748824    -0.038934     0.747850    -0.038896       0.748962 -1.384708e-04
311   7.7750     0.747850    -0.038896     0.746878    -0.038859       0.747990 -1.401098e-04
312   7.8000     0.746878    -0.038859     0.745906    -0.038821       0.747020 -1.417225e-04
313   7.8250     0.745906    -0.038821     0.744936    -0.038783       0.746050 -1.433095e-04
314   7.8500     0.744936    -0.038783     0.743966    -0.038744       0.745081 -1.448712e-04
315   7.8750     0.743966    -0.038744     0.742998    -0.038706       0.744113 -1.464080e-04
316   7.9000     0.742998    -0.038706     0.742030    -0.038667       0.743146 -1.479205e-04
317   7.9250     0.742030    -0.038667     0.741063    -0.038628       0.742179 -1.494090e-04
318   7.9500     0.741063    -0.038628     0.740098    -0.038588       0.741214 -1.508741e-04
319   7.9750     0.740098    -0.038588     0.739133    -0.038549       0.740250 -1.523161e-04
320   8.0000     0.739133    -0.038549     0.738169    -0.038509       0.739287 -1.537354e-04
321   8.0250     0.738169    -0.038509     0.737206    -0.038469       0.738324 -1.551325e-04
322   8.0500     0.737206    -0.038469     0.736245    -0.038429       0.737363 -1.565078e-04
323   8.0750     0.736245    -0.038429     0.735284    -0.038388       0.736403 -1.578617e-04
324   8.1000     0.735284    -0.038388     0.734324    -0.038348       0.735443 -1.591946e-04
325   8.1250     0.734324    -0.038348     0.733366    -0.038307       0.734485 -1.605068e-04
326   8.1500     0.733366    -0.038307     0.732408    -0.038266       0.733527 -1.617988e-04
327   8.1750     0.732408    -0.038266     0.731451    -0.038225       0.732571 -1.630709e-04
328   8.2000     0.731451    -0.038225     0.730496    -0.038184       0.731616 -1.643235e-04
329   8.2250     0.730496    -0.038184     0.729541    -0.038142       0.730661 -1.655569e-04
330   8.2500     0.729541    -0.038142     0.728588    -0.038100       0.729708 -1.667715e-04
331   8.2750     0.728588    -0.038100     0.727635    -0.038059       0.728756 -1.679676e-04
332   8.3000     0.727635    -0.038059     0.726684    -0.038017       0.727804 -1.691456e-04
333   8.3250     0.726684    -0.038017     0.725733    -0.037975       0.726854 -1.703058e-04
334   8.3500     0.725733    -0.037975     0.724784    -0.037932       0.725905 -1.714486e-04
335   8.3750     0.724784    -0.037932     0.723835    -0.037890       0.724956 -1.725742e-04
336   8.4000     0.723835    -0.037890     0.722888    -0.037848       0.724009 -1.736829e-04
337   8.4250     0.722888    -0.037848     0.721942    -0.037805       0.723063 -1.747752e-04
338   8.4500     0.721942    -0.037805     0.720997    -0.037762       0.722118 -1.758512e-04
339   8.4750     0.720997    -0.037762     0.720053    -0.037720       0.721174 -1.769113e-04
340   8.5000     0.720053    -0.037720     0.719110    -0.037677       0.720231 -1.779557e-04
341   8.5250     0.719110    -0.037677     0.718168    -0.037634       0.719289 -1.789848e-04
342   8.5500     0.718168    -0.037634     0.717227    -0.037591       0.718348 -1.799988e-04
343   8.5750     0.717227    -0.037591     0.716287    -0.037547       0.717408 -1.809980e-04
344   8.6000     0.716287    -0.037547     0.715349    -0.037504       0.716469 -1.819827e-04
345   8.6250     0.715349    -0.037504     0.714411    -0.037461       0.715532 -1.829531e-04
346   8.6500     0.714411    -0.037461     0.713475    -0.037417       0.714595 -1.839096e-04
347   8.6750     0.713475    -0.037417     0.712539    -0.037373       0.713659 -1.848522e-04
348   8.7000     0.712539    -0.037373     0.711605    -0.037330       0.712725 -1.857814e-04
349   8.7250     0.711605    -0.037330     0.710672    -0.037286       0.711791 -1.866973e-04
350   8.7500     0.710672    -0.037286     0.709739    -0.037242       0.710859 -1.876003e-04
351   8.7750     0.709739    -0.037242     0.708808    -0.037198       0.709928 -1.884904e-04
352   8.8000     0.708808    -0.037198     0.707878    -0.037154       0.708998 -1.893680e-04
353   8.8250     0.707878    -0.037154     0.706949    -0.037110       0.708069 -1.902333e-04
354   8.8500     0.706949    -0.037110     0.706022    -0.037066       0.707141 -1.910864e-04
355   8.8750     0.706022    -0.037066     0.705095    -0.037022       0.706214 -1.919277e-04
356   8.9000     0.705095    -0.037022     0.704170    -0.036978       0.705288 -1.927574e-04
357   8.9250     0.704170    -0.036978     0.703245    -0.036934       0.704363 -1.935756e-04
358   8.9500     0.703245    -0.036934     0.702322    -0.036889       0.703439 -1.943825e-04
359   8.9750     0.702322    -0.036889     0.701399    -0.036845       0.702517 -1.951784e-04
360   9.0000     0.701399    -0.036845     0.700478    -0.036801       0.701595 -1.959634e-04
361   9.0250     0.700478    -0.036801     0.699558    -0.036756       0.700675 -1.967378e-04
362   9.0500     0.699558    -0.036756     0.698639    -0.036712       0.699756 -1.975018e-04
363   9.0750     0.698639    -0.036712     0.697722    -0.036667       0.698838 -1.982555e-04
364   9.1000     0.697722    -0.036667     0.696805    -0.036623       0.697921 -1.989990e-04
365   9.1250     0.696805    -0.036623     0.695889    -0.036578       0.697005 -1.997327e-04
366   9.1500     0.695889    -0.036578     0.694975    -0.036534       0.696090 -2.004567e-04
367   9.1750     0.694975    -0.036534     0.694062    -0.036489       0.695176 -2.011710e-04
368   9.2000     0.694062    -0.036489     0.693149    -0.036444       0.694263 -2.018760e-04
369   9.2250     0.693149    -0.036444     0.692238    -0.036400       0.693352 -2.025718e-04
370   9.2500     0.692238    -0.036400     0.691328    -0.036355       0.692441 -2.032585e-04
371   9.2750     0.691328    -0.036355     0.690419    -0.036310       0.691532 -2.039364e-04
372   9.3000     0.690419    -0.036310     0.689512    -0.036266       0.690624 -2.046054e-04
373   9.3250     0.689512    -0.036266     0.688605    -0.036221       0.689717 -2.052659e-04
374   9.3500     0.688605    -0.036221     0.687699    -0.036176       0.688811 -2.059180e-04
375   9.3750     0.687699    -0.036176     0.686795    -0.036131       0.687906 -2.065618e-04
376   9.4000     0.686795    -0.036131     0.685892    -0.036087       0.687002 -2.071974e-04
377   9.4250     0.685892    -0.036087     0.684990    -0.036042       0.686100 -2.078251e-04
378   9.4500     0.684990    -0.036042     0.684089    -0.035997       0.685198 -2.084449e-04
379   9.4750     0.684089    -0.035997     0.683189    -0.035952       0.684298 -2.090569e-04
380   9.5000     0.683189    -0.035952     0.682290    -0.035907       0.683398 -2.096614e-04
381   9.5250     0.682290    -0.035907     0.681392    -0.035862       0.682500 -2.102584e-04
382   9.5500     0.681392    -0.035862     0.680496    -0.035818       0.681603 -2.108481e-04
383   9.5750     0.680496    -0.035818     0.679600    -0.035773       0.680707 -2.114307e-04
384   9.6000     0.679600    -0.035773     0.678706    -0.035728       0.679812 -2.120061e-04
385   9.6250     0.678706    -0.035728     0.677813    -0.035683       0.678918 -2.125746e-04
386   9.6500     0.677813    -0.035683     0.676921    -0.035638       0.678026 -2.131363e-04
387   9.6750     0.676921    -0.035638     0.676030    -0.035594       0.677134 -2.136912e-04
388   9.7000     0.676030    -0.035594     0.675140    -0.035549       0.676244 -2.142396e-04
389   9.7250     0.675140    -0.035549     0.674251    -0.035504       0.675355 -2.147814e-04
390   9.7500     0.674251    -0.035504     0.673363    -0.035459       0.674466 -2.153169e-04
391   9.7750     0.673363    -0.035459     0.672477    -0.035414       0.673579 -2.158461e-04
392   9.8000     0.672477    -0.035414     0.671592    -0.035370       0.672693 -2.163692e-04
393   9.8250     0.671592    -0.035370     0.670707    -0.035325       0.671808 -2.168862e-04
394   9.8500     0.670707    -0.035325     0.669824    -0.035280       0.670925 -2.173973e-04
395   9.8750     0.669824    -0.035280     0.668942    -0.035235       0.670042 -2.179025e-04
396   9.9000     0.668942    -0.035235     0.668061    -0.035191       0.669161 -2.184020e-04
397   9.9250     0.668061    -0.035191     0.667182    -0.035146       0.668280 -2.188958e-04
398   9.9500     0.667182    -0.035146     0.666303    -0.035101       0.667401 -2.193840e-04
399   9.9750     0.666303    -0.035101     0.665425    -0.035057       0.666523 -2.198668e-04
